File: parsers/parser_electrochem/data/ORR_Pt-C_1600rpm_RDE.txt
Sept. 22, 2024   14:12:14
Linear Sweep Voltammetry
File: c:\users\19156\desktop\rawraw\orr_all\orr_pt_c_16000 rpm_rde.txt
Data Source:  Experiment
Instrument Model:  CHI440B
Header:
Note:

Init E (V) = 0.2
Final E (V) = -1
Scan Rate (V/s) = 0.005
Sample Interval (V) = 0.001
Quiet Time (sec) = 2
Sensitivity (A/V) = 1e-5

Results:

Channel 1:

Potential/V, Current/A

0.220, 9.540e-7
0.170, 9.540e-7
0.120, 9.540e-7
0.070, 9.540e-7
0.068, 9.540e-7
0.066, 7.040e-7
0.064, 2.120e-7
0.062, -1.640e-7
0.060, -5.130e-7
0.058, -1.070e-6
0.056, -1.420e-6
0.054, -1.880e-6
0.052, -2.480e-6
0.050, -2.960e-6
0.048, -3.530e-6
0.046, -4.000e-6
0.044, -4.500e-6
0.042, -5.300e-6
0.040, -5.830e-6
0.038, -6.560e-6
0.036, -7.410e-6
0.034, -8.030e-6
0.032, -8.880e-6
0.030, -9.700e-6
0.028, -1.060e-5
0.026, -1.160e-5
0.024, -1.260e-5
0.022, -1.360e-5
0.020, -1.490e-5
0.018, -1.580e-5
0.016, -1.710e-5
0.014, -1.840e-5
0.012, -1.970e-5
0.010, -2.120e-5
0.008, -2.260e-5
0.006, -2.420e-5
0.004, -2.590e-5
0.002, -2.750e-5
0.000, -2.940e-5
-0.002, -3.140e-5
-0.004, -3.330e-5
-0.006, -3.560e-5
-0.008, -3.760e-5
-0.010, -4.000e-5
-0.012, -4.250e-5
-0.014, -4.500e-5
-0.016, -4.780e-5
-0.018, -5.050e-5
-0.020, -5.340e-5
-0.022, -5.660e-5
-0.024, -5.970e-5
-0.026, -6.310e-5
-0.028, -6.670e-5
-0.030, -7.020e-5
-0.032, -7.410e-5
-0.034, -7.790e-5
-0.036, -8.190e-5
-0.038, -8.630e-5
-0.040, -9.050e-5
-0.042, -9.510e-5
-0.044, -9.990e-5
-0.046, -1.050e-4
-0.048, -1.100e-4
-0.050, -1.150e-4
-0.052, -1.200e-4
-0.054, -1.250e-4
-0.056, -1.310e-4
-0.058, -1.370e-4
-0.060, -1.420e-4
-0.062, -1.480e-4
-0.064, -1.540e-4
-0.066, -1.600e-4
-0.068, -1.660e-4
-0.070, -1.720e-4
-0.072, -1.780e-4
-0.074, -1.850e-4
-0.076, -1.910e-4
-0.078, -1.970e-4
-0.080, -2.030e-4
-0.082, -2.090e-4
-0.084, -2.150e-4
-0.086, -2.210e-4
-0.088, -2.270e-4
-0.090, -2.330e-4
-0.092, -2.390e-4
-0.094, -2.440e-4
-0.096, -2.500e-4
-0.098, -2.550e-4
-0.100, -2.600e-4
-0.102, -2.650e-4
-0.104, -2.700e-4
-0.106, -2.750e-4
-0.108, -2.790e-4
-0.110, -2.830e-4
-0.112, -2.870e-4
-0.114, -2.910e-4
-0.116, -2.950e-4
-0.118, -2.990e-4
-0.120, -3.020e-4
-0.122, -3.060e-4
-0.124, -3.090e-4
-0.126, -3.120e-4
-0.128, -3.150e-4
-0.130, -3.180e-4
-0.132, -3.210e-4
-0.134, -3.240e-4
-0.136, -3.260e-4
-0.138, -3.280e-4
-0.140, -3.310e-4
-0.142, -3.330e-4
-0.144, -3.360e-4
-0.146, -3.380e-4
-0.148, -3.410e-4
-0.150, -3.430e-4
-0.152, -3.450e-4
-0.154, -3.470e-4
-0.156, -3.490e-4
-0.158, -3.510e-4
-0.160, -3.520e-4
-0.162, -3.540e-4
-0.164, -3.560e-4
-0.166, -3.580e-4
-0.168, -3.580e-4
-0.170, -3.600e-4
-0.172, -3.620e-4
-0.174, -3.630e-4
-0.176, -3.640e-4
-0.178, -3.660e-4
-0.180, -3.670e-4
-0.182, -3.680e-4
-0.184, -3.700e-4
-0.186, -3.710e-4
-0.188, -3.720e-4
-0.190, -3.730e-4
-0.192, -3.740e-4
-0.194, -3.760e-4
-0.196, -3.760e-4
-0.198, -3.770e-4
-0.200, -3.780e-4
-0.202, -3.790e-4
-0.204, -3.800e-4
-0.206, -3.810e-4
-0.208, -3.810e-4
-0.210, -3.820e-4
-0.212, -3.830e-4
-0.214, -3.840e-4
-0.216, -3.850e-4
-0.218, -3.850e-4
-0.220, -3.850e-4
-0.222, -3.860e-4
-0.224, -3.870e-4
-0.226, -3.870e-4
-0.228, -3.880e-4
-0.230, -3.890e-4
-0.232, -3.890e-4
-0.234, -3.900e-4
-0.236, -3.900e-4
-0.238, -3.900e-4
-0.240, -3.910e-4
-0.242, -3.910e-4
-0.244, -3.910e-4
-0.246, -3.920e-4
-0.248, -3.920e-4
-0.250, -3.920e-4
-0.252, -3.930e-4
-0.254, -3.930e-4
-0.256, -3.930e-4
-0.258, -3.930e-4
-0.260, -3.940e-4
-0.262, -3.940e-4
-0.264, -3.940e-4
-0.266, -3.940e-4
-0.268, -3.940e-4
-0.270, -3.940e-4
-0.272, -3.940e-4
-0.274, -3.940e-4
-0.276, -3.940e-4
-0.278, -3.950e-4
-0.280, -3.950e-4
-0.282, -3.950e-4
-0.284, -3.950e-4
-0.286, -3.940e-4
-0.288, -3.940e-4
-0.290, -3.940e-4
-1.000, -3.940e-4